ENVI
byte order = 0
data type = 5
interleave = bsq
samples = 114
lines = 250
bands = 1
description = {}
file type = envi spectral library
fwhm = {      0.015000000,      0.015000000,      0.015000000,      0.015000000,
     0.015100000,      0.015100000,      0.015000000,      0.015000000,
     0.015100000,      0.015100000,      0.015000000,      0.015000000,
     0.015000000,      0.015000000,      0.015000000,      0.015000000,
     0.016100000,      0.015000000,      0.015100000,      0.016000000,
     0.016000000,      0.015000000,      0.016000000,      0.016000000,
     0.016100000,      0.016000000,      0.016000000,      0.017000000,
     0.016000000,      0.016000000,      0.016000000,      0.016100000,
     0.016000000,      0.016000000,      0.016000000,      0.016000000,
     0.016000000,      0.016000000,      0.016000000,      0.016100000,
     0.015000000,      0.016000000,      0.015000000,      0.015000000,
     0.015000000,      0.015000000,      0.015000000,      0.015000000,
     0.015100000,      0.015000000,      0.015000000,      0.015000000,
     0.015000000,      0.015000000,      0.015000000,      0.015100000,
     0.015100000,      0.014000000,      0.015000000,      0.015000000,
     0.014000000,      0.014000000,      0.014000000,      0.015000000,
     0.014000000,      0.014000000,      0.014000000,      0.015000000,
     0.014000000,      0.014000000,      0.014000000,      0.014000000,
     0.014000000,      0.014000000,      0.014000000,      0.014000000,
     0.013000000,      0.013000000,      0.013000000,      0.013000000,
     0.013000000,      0.013000000,      0.013000000,      0.013000000,
     0.012000000,      0.013000000,      0.020100000,      0.020000000,
     0.021000000,      0.020000000,      0.020000000,      0.019000000,
     0.019000000,      0.020100000,      0.020100000,      0.019000000,
     0.019000000,      0.018000000,      0.021000000,      0.018000000,
     0.019000000,      0.019000000,      0.018000000,      0.018000000,
     0.018100000,      0.018000000,      0.018100000,      0.018000000,
     0.018100000,      0.017000000,      0.017000000,      0.017000000,
     0.017000000,      0.017000000}
wavelength = {       0.45200000,       0.46440000,       0.48040000,
      0.49520000,       0.51010000,       0.52590000,       0.54150000,
      0.55680000,       0.57190000,       0.58710000,       0.60250000,
      0.61800000,       0.63350000,       0.64870000,       0.66380000,
      0.67900000,       0.69440000,       0.70980000,       0.72490000,
      0.74000000,       0.75520000,       0.77030000,       0.78520000,
      0.80030000,       0.81560000,       0.83070000,       0.84600000,
      0.86130000,       0.87650000,       0.88860000,       0.89480000,
      0.91120000,       0.92710000,       0.94310000,       0.95910000,
      0.97460000,       0.99030000,        1.0063000,        1.0218000,
       1.0372000,        1.0526000,        1.0679000,        1.0830000,
       1.0979000,        1.1128000,        1.1278000,        1.1423000,
       1.1568000,        1.1715000,        1.1861000,        1.2004000,
       1.2146000,        1.2289000,        1.2433000,        1.2574000,
       1.2715000,        1.2856000,        1.2994000,        1.3132000,
       1.3272000,        1.3407000,        1.5076000,        1.5210000,
       1.5346000,        1.5482000,        1.5615000,        1.5748000,
       1.5879000,        1.6009000,        1.6138000,        1.6267000,
       1.6397000,        1.6526000,        1.6651000,        1.6776000,
       1.6902000,        1.7027000,        1.7150000,        1.7273000,
       1.7397000,        1.7519000,        1.7639000,        1.7759000,
       1.7880000,        1.8000000,        1.8115000,        1.9906000,
       2.0097000,        2.0287000,        2.0474000,        2.0657000,
       2.0838000,        2.1017000,        2.1198000,        2.1378000,
       2.1557000,        2.1730000,        2.1897000,        2.2074000,
       2.2254000,        2.2425000,        2.2600000,        2.2767000,
       2.2934000,        2.3098000,        2.3263000,        2.3428000,
       2.3594000,        2.3756000,        2.3914000,        2.4072000,
       2.4229000,        2.4387000,        2.4546000}
wavelength units = micrometers
