ENVI
description = {
  SPOT Resampling Filter Functions}
samples = 273
lines   = 12
bands   = 1
header offset = 0
file type = ENVI Spectral Library
data type = 5
interleave = bsq
byte order = 0
wavelength units = Micrometers
z plot titles = {Wavelength, Value}
z plot range = {0.00, 1.00}
reflectance scale factor = 1.0
band names = {SPOT Band Filter Functions}
spectra names = {
 SPOT1 Band 1, SPOT1 Band 2, SPOT1 Band 3, SPOT4 Band 1, 
 SPOT4 Band 2, SPOT4 Band 3, SPOT4 Band 4, SPOT5 Band 1, 
 SPOT5 Band 2, SPOT5 Band 3, SPOT5 Band 4, SPOT5 Pan}
wavelength = {
 0.460000, 0.465000, 0.470000, 0.475000, 0.480000, 0.485000, 0.490000,
 0.495000, 0.500000, 0.505000, 0.510000, 0.515000, 0.520000, 0.525000,
 0.530000, 0.535000, 0.540000, 0.545000, 0.550000, 0.555000, 0.560000,
 0.565000, 0.570000, 0.575000, 0.580000, 0.585000, 0.590000, 0.595000,
 0.600000, 0.605000, 0.610000, 0.615000, 0.620000, 0.625000, 0.630000,
 0.635000, 0.640000, 0.645000, 0.650000, 0.655000, 0.660000, 0.665000,
 0.670000, 0.675000, 0.680000, 0.685000, 0.690000, 0.695000, 0.700000,
 0.705000, 0.710000, 0.715000, 0.720000, 0.725000, 0.730000, 0.735000,
 0.740000, 0.745000, 0.750000, 0.755000, 0.760000, 0.765000, 0.770000,
 0.775000, 0.780000, 0.785000, 0.790000, 0.795000, 0.800000, 0.805000,
 0.810000, 0.815000, 0.820000, 0.825000, 0.830000, 0.835000, 0.840000,
 0.845000, 0.850000, 0.855000, 0.860000, 0.865000, 0.870000, 0.875000,
 0.880000, 0.885000, 0.890000, 0.895000, 0.900000, 0.905000, 0.910000,
 0.915000, 0.920000, 0.925000, 0.930000, 0.935000, 0.940000, 0.945000,
 0.950000, 0.955000, 0.960000, 0.965000, 0.970000, 0.975000, 0.980000,
 0.985000, 0.990000, 0.995000, 1.000000, 1.005000, 1.010000, 1.015000,
 1.020000, 1.025000, 1.030000, 1.035000, 1.040000, 1.045000, 1.050000,
 1.055000, 1.060000, 1.065000, 1.070000, 1.075000, 1.080000, 1.085000,
 1.090000, 1.095000, 1.100000, 1.105000, 1.110000, 1.115000, 1.120000,
 1.125000, 1.130000, 1.135000, 1.140000, 1.145000, 1.150000, 1.155000,
 1.160000, 1.165000, 1.170000, 1.175000, 1.180000, 1.185000, 1.190000,
 1.195000, 1.200000, 1.205000, 1.210000, 1.215000, 1.220000, 1.225000,
 1.230000, 1.235000, 1.240000, 1.245000, 1.250000, 1.255000, 1.260000,
 1.265000, 1.270000, 1.275000, 1.280000, 1.285000, 1.290000, 1.295000,
 1.300000, 1.305000, 1.310000, 1.315000, 1.320000, 1.325000, 1.330000,
 1.335000, 1.340000, 1.345000, 1.350000, 1.355000, 1.360000, 1.365000,
 1.370000, 1.375000, 1.380000, 1.385000, 1.390000, 1.395000, 1.400000,
 1.405000, 1.410000, 1.415000, 1.420000, 1.425000, 1.430000, 1.435000,
 1.440000, 1.445000, 1.450000, 1.455000, 1.460000, 1.465000, 1.470000,
 1.475000, 1.480000, 1.485000, 1.490000, 1.495000, 1.500000, 1.505000,
 1.510000, 1.515000, 1.520000, 1.525000, 1.530000, 1.535000, 1.540000,
 1.545000, 1.550000, 1.555000, 1.560000, 1.565000, 1.570000, 1.575000,
 1.580000, 1.585000, 1.590000, 1.595000, 1.600000, 1.605000, 1.610000,
 1.615000, 1.620000, 1.625000, 1.630000, 1.635000, 1.640000, 1.645000,
 1.650000, 1.655000, 1.660000, 1.665000, 1.670000, 1.675000, 1.680000,
 1.685000, 1.690000, 1.695000, 1.700000, 1.705000, 1.710000, 1.715000,
 1.720000, 1.725000, 1.730000, 1.735000, 1.740000, 1.745000, 1.750000,
 1.755000, 1.760000, 1.765000, 1.770000, 1.775000, 1.780000, 1.785000,
 1.790000, 1.795000, 1.800000, 1.805000, 1.810000, 1.815000, 1.820000}
